Data from ocean_Reflection__4__00004__02007703261897692.txt Node

Date: Tue Sep 08 11:58:22 PDT 2020
User: toddkarin
Spectrometer: HDX00626
Trigger mode: 0
Integration Time (sec): 2.000000E-1
Scans to average: 5
Nonlinearity correction enabled: true
Boxcar width: 1
Storing dark spectrum: false
XAxis mode: Wavelengths
Number of Pixels in Spectrum: 2068
>>>>>Begin Spectral Data<<<<<
194.646	0
195.199	0
195.752	0
196.305	0
196.858	0
197.41	0
197.963	0
198.515	0
199.067	0
199.62	0
200.172	2.59
200.723	3.59
201.275	3.47
201.827	3.41
202.378	2.74
202.93	3.48
203.481	3.62
204.032	4.37
204.583	3.82
205.134	3.83
205.685	3.35
206.236	2.76
206.786	2.89
207.337	2.43
207.887	2.78
208.437	2.97
208.988	3.83
209.538	4.21
210.088	4.65
210.637	4.96
211.187	5.14
211.737	4.42
212.286	4.53
212.835	2.93
213.384	2.18
213.934	1.18
214.483	2.75
215.031	3.17
215.58	3.94
216.129	3.25
216.677	3.93
217.226	2.76
217.774	4.07
218.322	4.02
218.87	4.13
219.418	3.62
219.966	3.09
220.514	2.85
221.061	2.93
221.609	2.69
222.156	2.86
222.703	2.86
223.25	3.54
223.797	3.75
224.344	3.32
224.891	3.15
225.438	2.95
225.984	3.27
226.53	3.16
227.077	4.71
227.623	6.57
228.169	5.43
228.715	4.71
229.261	2.88
229.807	3.63
230.352	3.4
230.898	3.44
231.443	3.18
231.988	4.55
232.533	3.82
233.078	4.24
233.623	2.79
234.168	4.59
234.713	3.94
235.257	3.52
235.802	2.49
236.346	1.7
236.89	1.84
237.434	2.54
237.978	2.83
238.522	2.92
239.066	1.36
239.61	1.56
240.153	1.69
240.697	2.32
241.24	3.16
241.783	4
242.326	4.14
242.869	4.15
243.412	3.72
243.955	4.37
244.497	4.14
245.04	4.14
245.582	3.96
246.124	4.02
246.667	3.53
247.209	3.41
247.751	3.43
248.292	3.39
248.834	3.18
249.376	2.97
249.917	3.03
250.458	2.61
251	3.09
251.541	3.01
252.082	3.41
252.623	2.34
253.163	3.48
253.704	3.12
254.245	3.56
254.785	4
255.325	3.3
255.865	3.15
256.406	2.91
256.945	3.09
257.485	3.66
258.025	3.41
258.565	3.58
259.104	3.18
259.644	2.05
260.183	3.14
260.722	2.79
261.261	4.63
261.8	4.84
262.339	5.1
262.877	5.04
263.416	3.81
263.955	3.88
264.493	2.04
265.031	3.09
265.569	2.87
266.107	3.5
266.645	3.64
267.183	4.81
267.721	4.67
268.258	4.81
268.796	4.08
269.333	4.76
269.87	5.05
270.407	3.92
270.944	4.01
271.481	4.05
272.018	4.38
272.554	4.25
273.091	3.53
273.627	4.02
274.164	3.58
274.7	4.65
275.236	6.09
275.772	5.35
276.308	6.53
276.843	4.96
277.379	6.39
277.915	4.73
278.45	3.77
278.985	2.73
279.52	4.02
280.055	3.96
280.59	5.24
281.125	3.94
281.66	4.73
282.194	4.84
282.729	4
283.263	3.51
283.798	3.28
284.332	2.93
284.866	3.44
285.4	2.93
285.933	3.22
286.467	4.4
287.001	4.16
287.534	4.91
288.067	2.93
288.601	8.32
289.134	7.7
289.667	5.97
290.2	4.67
290.732	4.01
291.265	4.12
291.797	3.4
292.33	2.81
292.862	2.59
293.394	2.46
293.927	3.93
294.458	4.9
294.99	3.81
295.522	2.32
296.054	1.55
296.585	1.34
297.117	1.8
297.648	2.71
298.179	2.84
298.71	3.15
299.241	3.02
299.772	5.08
300.303	4.58
300.833	5.17
301.364	3.6
301.894	3.59
302.424	3.08
302.955	3.65
303.485	4.57
304.015	5.24
304.544	4.48
305.074	3.94
305.604	2.73
306.133	3.41
306.662	3.59
307.192	4.26
307.721	5.12
308.25	4.74
308.779	3.93
309.308	2.05
309.836	3.84
310.365	7.22
310.893	8.7
311.422	5.9
311.95	4.76
312.478	4.89
313.006	5.65
313.534	4.14
314.062	3.45
314.589	2.9
315.117	3.9
315.644	3.9
316.172	3.68
316.699	3.38
317.226	2.04
317.753	3.41
318.28	1.85
318.807	4.26
319.333	2.56
319.86	3.63
320.386	2.91
320.913	4.61
321.439	5.51
321.965	8.46
322.491	7
323.017	6.73
323.542	3.68
324.068	3.23
324.594	3.64
325.119	4.78
325.644	4.12
326.17	3.96
326.695	2.53
327.22	3.48
327.744	4.43
328.269	5.05
328.794	5.04
329.318	4.97
329.843	4.96
330.367	4.91
330.891	4.01
331.415	3.64
331.939	3.57
332.463	4.9
332.987	5.5
333.51	5.17
334.034	3.96
334.557	4.06
335.081	5.62
335.604	5.93
336.127	4.47
336.65	4.02
337.173	3.93
337.695	4.1
338.218	5.17
338.74	4.7
339.263	5.3
339.785	4.38
340.307	4.78
340.829	4.6
341.351	5.55
341.873	5.74
342.395	6.16
342.916	5.27
343.438	5.44
343.959	4.45
344.481	5.67
345.002	5.28
345.523	6.62
346.044	5.46
346.564	5.85
347.085	4.94
347.606	5.08
348.126	5.23
348.647	5.13
349.167	4.63
349.687	4.3
350.207	4.48
350.727	4.79
351.247	4.78
351.767	4.97
352.286	4.75
352.806	4.66
353.325	4.19
353.844	4.41
354.363	4.46
354.882	4.3
355.401	4.18
355.92	3.8
356.439	4.21
356.957	4.47
357.476	4.83
357.994	4.73
358.513	4.59
359.031	4.62
359.549	4.7
360.067	4.18
360.584	4.12
361.102	4.18
361.62	4.38
362.137	4.5
362.655	4.15
363.172	4.61
363.689	4.15
364.206	4.53
364.723	3.9
365.24	4.24
365.756	3.93
366.273	4.18
366.789	4.22
367.306	4.45
367.822	4.41
368.338	4.08
368.854	4.03
369.37	4.07
369.886	4.19
370.402	3.9
370.917	3.61
371.433	3.39
371.948	3.7
372.463	4.04
372.979	4.36
373.494	4.06
374.009	3.99
374.523	3.61
375.038	3.98
375.553	4.04
376.067	4.33
376.581	4.14
377.096	4.15
377.61	4.08
378.124	4.01
378.638	3.83
379.152	3.79
379.665	3.7
380.179	3.63
380.692	3.69
381.206	3.72
381.719	3.61
382.232	3.32
382.745	3.27
383.258	3.38
383.771	3.53
384.284	3.52
384.796	3.53
385.309	3.53
385.821	3.61
386.334	3.63
386.846	3.7
387.358	3.57
387.87	3.48
388.381	3.41
388.893	3.35
389.405	3.22
389.916	3.19
390.428	3.3
390.939	3.43
391.45	3.37
391.961	3.31
392.472	3.27
392.983	3.39
393.494	3.41
394.004	3.33
394.515	3.36
395.025	3.39
395.536	3.46
396.046	3.31
396.556	3.24
397.066	3.38
397.576	3.46
398.085	3.43
398.595	3.3
399.104	3.21
399.614	3.29
400.123	3.33
400.632	3.42
401.141	3.25
401.65	3.24
402.159	3.14
402.668	3.2
403.177	3.16
403.685	3.1
404.194	3.12
404.702	3.15
405.21	3.24
405.718	3.16
406.226	3.12
406.734	3.04
407.242	3.12
407.75	3.13
408.257	3.16
408.764	3.02
409.272	2.95
409.779	2.98
410.286	3.04
410.793	3.09
411.3	3.01
411.807	3.02
412.313	2.91
412.82	2.88
413.326	2.83
413.833	2.83
414.339	2.9
414.845	2.91
415.351	3.01
415.857	2.94
416.363	2.9
416.869	2.81
417.374	2.83
417.88	2.79
418.385	2.78
418.89	2.73
419.395	2.74
419.9	2.78
420.405	2.79
420.91	2.77
421.415	2.71
421.919	2.69
422.424	2.69
422.928	2.67
423.433	2.66
423.937	2.67
424.441	2.67
424.945	2.67
425.449	2.68
425.952	2.66
426.456	2.62
426.959	2.54
427.463	2.53
427.966	2.58
428.469	2.63
428.972	2.58
429.475	2.55
429.978	2.54
430.481	2.56
430.983	2.53
431.486	2.46
431.988	2.45
432.491	2.43
432.993	2.45
433.495	2.46
433.997	2.47
434.499	2.45
435.001	2.39
435.502	2.31
436.004	2.29
436.505	2.28
437.007	2.33
437.508	2.32
438.009	2.31
438.51	2.27
439.011	2.27
439.512	2.29
440.012	2.31
440.513	2.32
441.013	2.29
441.514	2.23
442.014	2.24
442.514	2.2
443.014	2.22
443.514	2.23
444.014	2.26
444.514	2.23
445.013	2.18
445.513	2.18
446.012	2.19
446.511	2.21
447.01	2.15
447.509	2.13
448.008	2.09
448.507	2.11
449.006	2.12
449.505	2.09
450.003	2.09
450.502	2.07
451	2.09
451.498	2.07
451.996	2.03
452.494	2.02
452.992	1.98
453.49	2
453.987	1.99
454.485	2
454.982	1.98
455.48	1.97
455.977	1.97
456.474	1.95
456.971	1.97
457.468	1.96
457.965	1.97
458.461	1.92
458.958	1.92
459.454	1.88
459.951	1.87
460.447	1.84
460.943	1.84
461.439	1.83
461.935	1.86
462.431	1.82
462.927	1.82
463.422	1.77
463.918	1.78
464.413	1.77
464.908	1.79
465.404	1.78
465.899	1.76
466.394	1.74
466.888	1.74
467.383	1.75
467.878	1.76
468.372	1.75
468.867	1.75
469.361	1.75
469.855	1.76
470.349	1.73
470.843	1.72
471.337	1.71
471.831	1.7
472.325	1.66
472.818	1.66
473.312	1.65
473.805	1.65
474.298	1.58
474.792	1.59
475.285	1.58
475.777	1.63
476.27	1.63
476.763	1.6
477.256	1.6
477.748	1.58
478.24	1.61
478.733	1.57
479.225	1.57
479.717	1.54
480.209	1.55
480.701	1.53
481.193	1.55
481.684	1.52
482.176	1.49
482.667	1.47
483.158	1.49
483.65	1.51
484.141	1.51
484.632	1.49
485.123	1.46
485.613	1.45
486.104	1.45
486.595	1.44
487.085	1.47
487.576	1.44
488.066	1.45
488.556	1.4
489.046	1.43
489.536	1.41
490.026	1.41
490.515	1.39
491.005	1.36
491.495	1.36
491.984	1.34
492.473	1.34
492.962	1.36
493.452	1.36
493.94	1.35
494.429	1.35
494.918	1.36
495.407	1.35
495.895	1.32
496.384	1.31
496.872	1.3
497.36	1.3
497.848	1.28
498.336	1.27
498.824	1.29
499.312	1.25
499.8	1.26
500.287	1.22
500.775	1.26
501.262	1.25
501.75	1.25
502.237	1.22
502.724	1.21
503.211	1.18
503.698	1.18
504.184	1.18
504.671	1.17
505.158	1.17
505.644	1.18
506.13	1.19
506.616	1.18
507.103	1.17
507.589	1.16
508.074	1.16
508.56	1.16
509.046	1.15
509.532	1.16
510.017	1.16
510.502	1.15
510.988	1.15
511.473	1.12
511.958	1.12
512.443	1.12
512.928	1.11
513.412	1.11
513.897	1.09
514.381	1.08
514.866	1.07
515.35	1.07
515.834	1.08
516.318	1.08
516.802	1.09
517.286	1.07
517.77	1.06
518.254	1.05
518.737	1.06
519.221	1.05
519.704	1.04
520.187	1.05
520.671	1.04
521.154	1.03
521.637	1
522.119	1
522.602	1
523.085	1
523.567	1.01
524.05	0.99
524.532	0.99
525.014	0.99
525.496	0.97
525.978	0.97
526.46	0.95
526.942	0.96
527.424	0.96
527.905	0.97
528.387	0.98
528.868	0.96
529.349	0.95
529.83	0.95
530.311	0.96
530.792	0.95
531.273	0.92
531.754	0.89
532.235	0.89
532.715	0.93
533.195	0.93
533.676	0.9
534.156	0.9
534.636	0.89
535.116	0.91
535.596	0.9
536.076	0.9
536.555	0.9
537.035	0.88
537.514	0.87
537.994	0.88
538.473	0.87
538.952	0.86
539.431	0.85
539.91	0.84
540.389	0.84
540.868	0.83
541.346	0.83
541.825	0.83
542.303	0.85
542.782	0.85
543.26	0.83
543.738	0.81
544.216	0.81
544.694	0.81
545.172	0.81
545.649	0.82
546.127	0.83
546.604	0.81
547.082	0.81
547.559	0.8
548.036	0.8
548.513	0.79
548.99	0.79
549.467	0.79
549.944	0.77
550.421	0.78
550.897	0.77
551.374	0.78
551.85	0.77
552.326	0.77
552.802	0.77
553.278	0.78
553.754	0.77
554.23	0.77
554.706	0.76
555.181	0.76
555.657	0.74
556.132	0.74
556.607	0.74
557.083	0.74
557.558	0.73
558.033	0.74
558.508	0.75
558.982	0.73
559.457	0.71
559.932	0.69
560.406	0.72
560.88	0.73
561.355	0.72
561.829	0.71
562.303	0.7
562.777	0.7
563.251	0.71
563.724	0.7
564.198	0.71
564.672	0.71
565.145	0.72
565.618	0.71
566.092	0.7
566.565	0.68
567.038	0.68
567.511	0.67
567.983	0.68
568.456	0.69
568.929	0.69
569.401	0.68
569.873	0.67
570.346	0.66
570.818	0.66
571.29	0.67
571.762	0.66
572.234	0.67
572.706	0.65
573.177	0.66
573.649	0.66
574.12	0.68
574.592	0.67
575.063	0.66
575.534	0.65
576.005	0.65
576.476	0.65
576.947	0.64
577.418	0.64
577.888	0.64
578.359	0.63
578.829	0.63
579.299	0.63
579.77	0.64
580.24	0.65
580.71	0.64
581.18	0.63
581.65	0.63
582.119	0.62
582.589	0.6
583.058	0.59
583.528	0.6
583.997	0.63
584.466	0.63
584.935	0.62
585.404	0.61
585.873	0.61
586.342	0.6
586.811	0.6
587.279	0.6
587.748	0.61
588.216	0.61
588.684	0.61
589.152	0.61
589.62	0.6
590.088	0.59
590.556	0.57
591.024	0.58
591.492	0.58
591.959	0.57
592.427	0.57
592.894	0.58
593.361	0.59
593.828	0.6
594.295	0.58
594.762	0.59
595.229	0.59
595.696	0.59
596.162	0.58
596.629	0.58
597.095	0.57
597.562	0.56
598.028	0.56
598.494	0.57
598.96	0.57
599.426	0.57
599.892	0.56
600.357	0.56
600.823	0.56
601.288	0.57
601.754	0.56
602.219	0.56
602.684	0.55
603.149	0.57
603.614	0.55
604.079	0.56
604.544	0.55
605.009	0.56
605.473	0.56
605.938	0.56
606.402	0.56
606.866	0.57
607.33	0.57
607.794	0.57
608.258	0.56
608.722	0.57
609.186	0.56
609.65	0.56
610.113	0.55
610.577	0.55
611.04	0.56
611.503	0.56
611.966	0.55
612.429	0.54
612.892	0.54
613.355	0.55
613.818	0.54
614.281	0.54
614.743	0.54
615.206	0.54
615.668	0.54
616.13	0.54
616.592	0.53
617.054	0.53
617.516	0.53
617.978	0.54
618.44	0.55
618.901	0.55
619.363	0.55
619.824	0.54
620.286	0.54
620.747	0.55
621.208	0.54
621.669	0.55
622.13	0.54
622.591	0.53
623.051	0.52
623.512	0.53
623.972	0.53
624.433	0.52
624.893	0.53
625.353	0.52
625.813	0.53
626.273	0.53
626.733	0.54
627.193	0.53
627.653	0.52
628.112	0.52
628.572	0.52
629.031	0.51
629.49	0.52
629.95	0.52
630.409	0.53
630.868	0.53
631.327	0.53
631.785	0.53
632.244	0.52
632.703	0.52
633.161	0.52
633.619	0.53
634.078	0.53
634.536	0.54
634.994	0.53
635.452	0.52
635.91	0.51
636.367	0.52
636.825	0.51
637.283	0.51
637.74	0.5
638.198	0.52
638.655	0.53
639.112	0.53
639.569	0.52
640.026	0.52
640.483	0.51
640.94	0.52
641.396	0.53
641.853	0.53
642.309	0.52
642.766	0.52
643.222	0.52
643.678	0.52
644.134	0.51
644.59	0.51
645.046	0.52
645.502	0.52
645.957	0.53
646.413	0.54
646.868	0.54
647.324	0.54
647.779	0.53
648.234	0.52
648.689	0.53
649.144	0.53
649.599	0.53
650.054	0.54
650.508	0.53
650.963	0.53
651.417	0.52
651.872	0.52
652.326	0.54
652.78	0.54
653.234	0.54
653.688	0.53
654.142	0.53
654.596	0.52
655.049	0.52
655.503	0.52
655.956	0.52
656.409	0.52
656.863	0.54
657.316	0.53
657.769	0.54
658.222	0.54
658.675	0.54
659.127	0.54
659.58	0.53
660.033	0.53
660.485	0.53
660.937	0.53
661.39	0.53
661.842	0.54
662.294	0.54
662.746	0.54
663.198	0.53
663.649	0.53
664.101	0.54
664.552	0.54
665.004	0.54
665.455	0.53
665.907	0.53
666.358	0.53
666.809	0.54
667.26	0.54
667.71	0.54
668.161	0.54
668.612	0.55
669.062	0.54
669.513	0.55
669.963	0.55
670.413	0.56
670.864	0.55
671.314	0.54
671.764	0.54
672.213	0.55
672.663	0.54
673.113	0.54
673.562	0.54
674.012	0.54
674.461	0.55
674.91	0.54
675.36	0.55
675.809	0.55
676.258	0.56
676.706	0.56
677.155	0.56
677.604	0.56
678.052	0.56
678.501	0.55
678.949	0.56
679.397	0.57
679.846	0.57
680.294	0.57
680.742	0.57
681.189	0.57
681.637	0.56
682.085	0.55
682.532	0.55
682.98	0.55
683.427	0.57
683.875	0.56
684.322	0.57
684.769	0.57
685.216	0.56
685.663	0.55
686.109	0.56
686.556	0.56
687.003	0.56
687.449	0.57
687.896	0.58
688.342	0.59
688.788	0.58
689.234	0.58
689.68	0.58
690.126	0.57
690.572	0.57
691.017	0.55
691.463	0.56
691.908	0.56
692.354	0.58
692.799	0.58
693.244	0.57
693.689	0.56
694.134	0.56
694.579	0.57
695.024	0.57
695.469	0.57
695.913	0.57
696.358	0.58
696.802	0.59
697.247	0.59
697.691	0.58
698.135	0.58
698.579	0.59
699.023	0.6
699.467	0.58
699.91	0.58
700.354	0.58
700.797	0.59
701.241	0.59
701.684	0.59
702.127	0.59
702.571	0.6
703.014	0.59
703.456	0.58
703.899	0.59
704.342	0.61
704.785	0.61
705.227	0.61
705.67	0.6
706.112	0.61
706.554	0.61
706.996	0.61
707.438	0.61
707.88	0.61
708.322	0.61
708.764	0.61
709.206	0.61
709.647	0.61
710.089	0.62
710.53	0.63
710.971	0.63
711.412	0.64
711.853	0.62
712.294	0.63
712.735	0.62
713.176	0.63
713.617	0.61
714.057	0.61
714.498	0.61
714.938	0.63
715.378	0.63
715.819	0.63
716.259	0.64
716.699	0.65
717.139	0.65
717.578	0.64
718.018	0.62
718.458	0.62
718.897	0.63
719.337	0.64
719.776	0.64
720.215	0.65
720.654	0.64
721.093	0.64
721.532	0.63
721.971	0.64
722.41	0.64
722.848	0.63
723.287	0.64
723.725	0.65
724.163	0.65
724.602	0.65
725.04	0.65
725.478	0.66
725.916	0.66
726.354	0.66
726.791	0.66
727.229	0.66
727.667	0.66
728.104	0.66
728.541	0.67
728.979	0.67
729.416	0.67
729.853	0.66
730.29	0.66
730.727	0.66
731.163	0.67
731.6	0.68
732.037	0.68
732.473	0.67
732.91	0.66
733.346	0.66
733.782	0.68
734.218	0.68
734.654	0.69
735.09	0.69
735.526	0.68
735.962	0.68
736.397	0.68
736.833	0.68
737.268	0.69
737.703	0.69
738.139	0.69
738.574	0.68
739.009	0.67
739.444	0.67
739.879	0.68
740.313	0.7
740.748	0.71
741.183	0.71
741.617	0.7
742.051	0.7
742.486	0.69
742.92	0.7
743.354	0.71
743.788	0.72
744.222	0.72
744.655	0.72
745.089	0.72
745.523	0.7
745.956	0.7
746.389	0.69
746.823	0.7
747.256	0.7
747.689	0.71
748.122	0.71
748.555	0.72
748.988	0.73
749.42	0.73
749.853	0.73
750.286	0.73
750.718	0.72
751.15	0.72
751.583	0.72
752.015	0.72
752.447	0.72
752.879	0.72
753.311	0.73
753.742	0.73
754.174	0.74
754.606	0.73
755.037	0.75
755.468	0.74
755.9	0.74
756.331	0.74
756.762	0.75
757.193	0.74
757.624	0.74
758.054	0.75
758.485	0.76
758.916	0.76
759.346	0.75
759.777	0.74
760.207	0.75
760.637	0.75
761.067	0.75
761.497	0.74
761.927	0.75
762.357	0.75
762.787	0.76
763.216	0.76
763.646	0.76
764.075	0.76
764.505	0.76
764.934	0.75
765.363	0.75
765.792	0.75
766.221	0.76
766.65	0.76
767.079	0.77
767.508	0.76
767.936	0.76
768.365	0.76
768.793	0.77
769.221	0.78
769.65	0.78
770.078	0.77
770.506	0.79
770.934	0.79
771.361	0.79
771.789	0.78
772.217	0.79
772.644	0.79
773.072	0.79
773.499	0.79
773.926	0.81
774.353	0.8
774.781	0.79
775.208	0.79
775.634	0.79
776.061	0.81
776.488	0.8
776.914	0.81
777.341	0.81
777.767	0.81
778.194	0.82
778.62	0.81
779.046	0.82
779.472	0.8
779.898	0.8
780.324	0.81
780.749	0.82
781.175	0.82
781.601	0.82
782.026	0.83
782.451	0.84
782.877	0.84
783.302	0.84
783.727	0.83
784.152	0.82
784.577	0.83
785.001	0.84
785.426	0.84
785.851	0.84
786.275	0.84
786.7	0.85
787.124	0.85
787.548	0.85
787.972	0.85
788.396	0.84
788.82	0.85
789.244	0.85
789.668	0.85
790.091	0.85
790.515	0.85
790.938	0.85
791.362	0.85
791.785	0.85
792.208	0.85
792.631	0.86
793.054	0.85
793.477	0.86
793.9	0.85
794.323	0.87
794.745	0.86
795.168	0.86
795.59	0.86
796.012	0.86
796.435	0.86
796.857	0.86
797.279	0.87
797.701	0.87
798.123	0.87
798.544	0.87
798.966	0.87
799.388	0.88
799.809	0.88
800.23	0.87
800.652	0.85
801.073	0.86
801.494	0.87
801.915	0.89
802.336	0.88
802.757	0.88
803.177	0.88
803.598	0.89
804.019	0.9
804.439	0.91
804.859	0.91
805.28	0.9
805.7	0.9
806.12	0.9
806.54	0.91
806.96	0.91
807.379	0.9
807.799	0.9
808.219	0.91
808.638	0.9
809.058	0.9
809.477	0.9
809.896	0.89
810.315	0.9
810.734	0.91
811.153	0.92
811.572	0.93
811.991	0.92
812.409	0.93
812.828	0.93
813.246	0.93
813.665	0.93
814.083	0.94
814.501	0.94
814.919	0.94
815.337	0.94
815.755	0.95
816.173	0.94
816.591	0.93
817.008	0.93
817.426	0.94
817.843	0.94
818.261	0.94
818.678	0.94
819.095	0.94
819.512	0.95
819.929	0.95
820.346	0.93
820.763	0.93
821.18	0.94
821.596	0.96
822.013	0.95
822.429	0.93
822.845	0.94
823.262	0.96
823.678	0.97
824.094	0.96
824.51	0.96
824.926	0.96
825.341	0.95
825.757	0.94
826.173	0.93
826.588	0.95
827.003	0.97
827.419	0.98
827.834	0.97
828.249	0.97
828.664	0.97
829.079	0.97
829.494	0.97
829.908	0.97
830.323	0.98
830.738	0.98
831.152	0.98
831.566	0.98
831.981	0.99
832.395	0.99
832.809	1
833.223	1.01
833.637	1.01
834.051	1
834.464	0.99
834.878	0.98
835.292	0.99
835.705	0.99
836.118	1
836.532	0.99
836.945	1.01
837.358	1
837.771	1.01
838.184	1.01
838.597	1.02
839.009	1.02
839.422	1.02
839.834	1.03
840.247	1.03
840.659	1.02
841.071	1.01
841.483	1.02
841.895	1.01
842.307	1.02
842.719	1.02
843.131	1.03
843.543	1.03
843.954	1.03
844.366	1.03
844.777	1.04
845.189	1.04
845.6	1.04
846.011	1.04
846.422	1.04
846.833	1.04
847.244	1.04
847.654	1.04
848.065	1.04
848.476	1.03
848.886	1.04
849.297	1.05
849.707	1.06
850.117	1.06
850.527	1.08
850.937	1.07
851.347	1.07
851.757	1.06
852.167	1.06
852.576	1.06
852.986	1.06
853.395	1.06
853.805	1.05
854.214	1.06
854.623	1.07
855.032	1.07
855.441	1.08
855.85	1.08
856.259	1.07
856.668	1.06
857.077	1.07
857.485	1.07
857.894	1.09
858.302	1.09
858.71	1.09
859.118	1.08
859.527	1.08
859.935	1.1
860.342	1.09
860.75	1.08
861.158	1.08
861.566	1.09
861.973	1.09
862.381	1.08
862.788	1.08
863.195	1.1
863.602	1.1
864.01	1.1
864.417	1.09
864.823	1.1
865.23	1.11
865.637	1.12
866.044	1.12
866.45	1.12
866.857	1.11
867.263	1.1
867.669	1.11
868.075	1.11
868.481	1.12
868.887	1.1
869.293	1.11
869.699	1.1
870.105	1.12
870.511	1.12
870.916	1.13
871.322	1.14
871.727	1.13
872.132	1.12
872.537	1.12
872.942	1.12
873.347	1.13
873.752	1.12
874.157	1.13
874.562	1.14
874.966	1.14
875.371	1.12
875.775	1.12
876.18	1.11
876.584	1.13
876.988	1.14
877.392	1.15
877.796	1.15
878.2	1.14
878.604	1.15
879.008	1.14
879.411	1.15
879.815	1.15
880.218	1.16
880.622	1.16
881.025	1.15
881.428	1.16
881.831	1.17
882.234	1.18
882.637	1.17
883.04	1.17
883.443	1.17
883.845	1.19
884.248	1.19
884.65	1.2
885.053	1.19
885.455	1.18
885.857	1.16
886.259	1.16
886.661	1.17
887.063	1.16
887.465	1.17
887.867	1.17
888.268	1.19
888.67	1.17
889.071	1.18
889.473	1.19
889.874	1.2
890.275	1.22
890.676	1.21
891.077	1.21
891.478	1.2
891.879	1.2
892.28	1.19
892.68	1.19
893.081	1.2
893.481	1.2
893.882	1.21
894.282	1.21
894.682	1.2
895.082	1.19
895.482	1.19
895.882	1.19
896.282	1.21
896.682	1.2
897.082	1.22
897.481	1.21
897.881	1.21
898.28	1.21
898.679	1.21
899.079	1.23
899.478	1.23
899.877	1.23
900.276	1.22
900.674	1.22
901.073	1.22
901.472	1.22
901.87	1.22
902.269	1.23
902.667	1.26
903.066	1.27
903.464	1.26
903.862	1.25
904.26	1.25
904.658	1.25
905.056	1.25
905.454	1.24
905.851	1.24
906.249	1.24
906.646	1.25
907.044	1.24
907.441	1.25
907.838	1.26
908.236	1.26
908.633	1.26
909.03	1.25
909.426	1.24
909.823	1.24
910.22	1.24
910.617	1.25
911.013	1.25
911.41	1.25
911.806	1.25
912.202	1.25
912.598	1.25
912.994	1.25
913.39	1.25
913.786	1.27
914.182	1.27
914.578	1.27
914.973	1.26
915.369	1.26
915.764	1.26
916.16	1.27
916.555	1.27
916.95	1.26
917.345	1.25
917.74	1.25
918.135	1.27
918.53	1.27
918.925	1.28
919.32	1.29
919.714	1.3
920.109	1.3
920.503	1.3
920.897	1.3
921.291	1.3
921.686	1.29
922.08	1.29
922.474	1.3
922.867	1.29
923.261	1.3
923.655	1.29
924.048	1.31
924.442	1.31
924.835	1.3
925.229	1.32
925.622	1.32
926.015	1.32
926.408	1.31
926.801	1.32
927.194	1.32
927.587	1.31
927.979	1.3
928.372	1.29
928.765	1.3
929.157	1.29
929.549	1.29
929.942	1.3
930.334	1.32
930.726	1.34
931.118	1.34
931.51	1.34
931.902	1.34
932.293	1.35
932.685	1.34
933.077	1.34
933.468	1.33
933.859	1.34
934.251	1.32
934.642	1.32
935.033	1.31
935.424	1.33
935.815	1.34
936.206	1.35
936.597	1.36
936.987	1.35
937.378	1.32
937.768	1.31
938.159	1.34
938.549	1.36
938.939	1.37
939.329	1.36
939.719	1.39
940.109	1.38
940.499	1.39
940.889	1.33
941.279	1.34
941.668	1.32
942.058	1.38
942.447	1.37
942.837	1.39
943.226	1.36
943.615	1.38
944.004	1.4
944.393	1.41
944.782	1.4
945.171	1.38
945.56	1.42
945.948	1.43
946.337	1.45
946.725	1.4
947.114	1.41
947.502	1.37
947.89	1.39
948.278	1.4
948.667	1.44
949.054	1.43
949.442	1.43
949.83	1.39
950.218	1.4
950.605	1.37
950.993	1.4
951.38	1.41
951.768	1.43
952.155	1.42
952.542	1.4
952.929	1.39
953.316	1.4
953.703	1.41
954.09	1.43
954.477	1.44
954.863	1.44
955.25	1.45
955.636	1.45
956.023	1.44
956.409	1.42
956.795	1.43
957.181	1.45
957.567	1.45
957.953	1.42
958.339	1.42
958.725	1.42
959.111	1.43
959.496	1.44
959.882	1.46
960.267	1.48
960.652	1.45
961.038	1.44
961.423	1.44
961.808	1.44
962.193	1.46
962.578	1.44
962.963	1.46
963.347	1.45
963.732	1.46
964.117	1.44
964.501	1.46
964.885	1.47
965.27	1.47
965.654	1.45
966.038	1.45
966.422	1.48
966.806	1.49
967.19	1.48
967.574	1.46
967.957	1.45
968.341	1.46
968.724	1.47
969.108	1.49
969.491	1.5
969.874	1.49
970.258	1.47
970.641	1.47
971.024	1.47
971.407	1.46
971.789	1.46
972.172	1.47
972.555	1.48
972.937	1.49
973.32	1.48
973.702	1.47
974.085	1.49
974.467	1.49
974.849	1.49
975.231	1.47
975.613	1.48
975.995	1.5
976.377	1.51
976.758	1.51
977.14	1.5
977.521	1.5
977.903	1.51
978.284	1.52
978.665	1.51
979.047	1.51
979.428	1.5
979.809	1.51
980.19	1.5
980.57	1.51
980.951	1.52
981.332	1.51
981.712	1.52
982.093	1.52
982.473	1.51
982.854	1.5
983.234	1.5
983.614	1.52
983.994	1.54
984.374	1.55
984.754	1.56
985.134	1.56
985.514	1.58
985.893	1.56
986.273	1.56
986.652	1.54
987.032	1.55
987.411	1.56
987.79	1.57
988.169	1.58
988.548	1.58
988.927	1.57
989.306	1.57
989.685	1.57
990.064	1.56
990.442	1.56
990.821	1.56
991.199	1.58
991.577	1.59
991.956	1.58
992.334	1.6
992.712	1.57
993.09	1.57
993.468	1.56
993.846	1.59
994.224	1.59
994.601	1.6
994.979	1.59
995.356	1.59
995.734	1.59
996.111	1.58
996.488	1.6
996.865	1.61
997.243	1.62
997.62	1.61
997.996	1.59
998.373	1.6
998.75	1.61
999.127	1.62
999.503	1.62
999.88	1.63
1000.256	1.63
1000.632	1.63
1001.009	1.61
1001.385	1.61
1001.761	1.61
1002.137	1.63
1002.513	1.63
1002.888	1.65
1003.264	1.65
1003.64	1.64
1004.015	1.63
1004.391	1.62
1004.766	1.63
1005.141	1.64
1005.517	1.64
1005.892	1.65
1006.267	1.65
1006.642	1.66
1007.017	1.68
1007.391	1.67
1007.766	1.64
1008.141	1.64
1008.515	1.64
1008.89	1.66
1009.264	1.66
1009.638	1.67
1010.012	1.66
1010.387	1.64
1010.761	1.66
1011.134	1.66
1011.508	1.67
1011.882	1.68
1012.256	1.69
1012.629	1.7
1013.003	1.7
1013.376	1.7
1013.75	1.69
1014.123	1.7
1014.496	1.68
1014.869	1.7
1015.242	1.69
1015.615	1.68
1015.988	1.67
1016.361	1.65
1016.733	1.69
1017.106	1.69
1017.478	1.73
1017.851	1.72
1018.223	1.71
1018.595	1.7
1018.968	1.71
1019.34	1.72
1019.712	1.72
1020.084	1.72
1020.455	1.71
1020.827	1.7
1021.199	1.69
1021.57	1.7
1021.942	1.73
1022.313	1.74
1022.685	1.73
1023.056	1.71
1023.427	1.73
1023.798	1.74
1024.169	1.77
1024.54	1.75
1024.911	1.75
1025.281	1.72
1025.652	1.73
1026.023	1.72
1026.393	1.75
1026.764	1.76
1027.134	1.8
1027.504	1.82
1027.874	1.79
1028.244	1.76
1028.614	1.72
1028.984	1.77
1029.354	1.79
1029.724	1.83
1030.093	1.82
1030.463	1.83
1030.832	1.79
1031.202	1.79
1031.571	1.79
1031.94	1.85
1032.31	1.85
1032.679	1.86
1033.048	1.83
1033.416	1.84
1033.785	1.83
1034.154	1.84
1034.523	1.84
1034.891	1.84
1035.26	1.81
1035.628	1.81
1035.996	1.84
1036.365	1.87
1036.733	1.88
1037.101	1.86
1037.469	1.86
1037.837	1.86
1038.205	1.87
1038.572	1.85
1038.94	1.87
1039.307	1.84
1039.675	1.87
1040.042	1.88
1040.41	1.9
1040.777	1.89
1041.144	1.89
1041.511	1.91
1041.878	1.93
1042.245	1.9
1042.612	1.9
1042.979	1.89
1043.345	1.93
1043.712	1.9
1044.078	1.93
1044.445	1.9
1044.811	1.92
1045.177	1.92
1045.543	1.92
1045.909	1.92
1046.275	1.92
1046.641	1.93
1047.007	1.94
1047.373	1.97
1047.738	1.95
1048.104	1.95
1048.47	1.95
1048.835	1.97
1049.2	1.98
1049.566	1.96
1049.931	1.98
1050.296	2
1050.661	2.04
1051.026	2.04
1051.39	2.02
1051.755	2
1052.12	2.02
1052.484	2.07
1052.849	2.07
1053.213	2.07
1053.578	2.07
1053.942	2.1
1054.306	2.07
1054.67	2.06
1055.034	2.04
1055.398	2.07
1055.762	2.07
1056.126	2.09
1056.489	2.09
1056.853	2.08
1057.217	2.08
1057.58	2.1
1057.943	2.1
1058.307	2.12
1058.67	2.11
1059.033	2.1
1059.396	2.09
1059.759	2.14
1060.122	2.2
1060.484	2.17
1060.847	2.13
1061.21	2.1
1061.572	2.1
1061.935	2.13
1062.297	2.13
1062.659	2.14
1063.021	2.14
1063.384	2.15
1063.746	2.15
1064.108	2.15
1064.469	2.12
1064.831	2.18
1065.193	2.19
1065.555	2.24
1065.916	2.2
1066.278	2.2
1066.639	2.21
1067	2.25
1067.361	2.25
1067.723	2.27
1068.084	2.23
1068.445	2.22
1068.805	2.2
1069.166	2.23
1069.527	2.25
1069.888	2.27
1070.248	2.3
1070.609	2.32
1070.969	2.32
1071.329	2.3
1071.69	2.32
1072.05	2.35
1072.41	2.35
1072.77	2.36
1073.13	2.35
1073.49	2.4
1073.849	2.4
1074.209	2.4
1074.569	2.34
1074.928	2.34
1075.288	2.32
1075.647	2.35
1076.006	2.33
1076.365	2.37
1076.724	2.38
1077.083	2.39
1077.442	2.4
1077.801	2.45
1078.16	2.46
1078.519	2.49
1078.877	2.49
1079.236	2.47
1079.594	2.45
1079.953	2.44
1080.311	2.5
1080.669	2.5
1081.027	2.51
1081.385	2.52
1081.743	2.58
1082.101	2.6
1082.459	2.54
1082.817	2.5
1083.174	2.51
1083.532	2.55
1083.889	2.54
1084.247	2.54
1084.604	2.54
1084.961	2.62
1085.318	2.61
1085.675	2.6
1086.032	2.58
1086.389	2.6
1086.746	2.62
1087.103	2.54
1087.46	2.54
1087.816	2.57
1088.173	2.67
1088.529	2.7
1088.885	2.73
1089.242	2.67
1089.598	2.71
1089.954	2.65
1090.31	2.7
1090.666	2.65
1091.022	2.62
1091.378	2.58
1091.733	2.62
1092.089	2.69
1092.444	2.76
1092.8	2.73
1093.155	2.77
1093.51	2.76
1093.866	2.76
1094.221	2.77
1094.576	2.8
1094.931	2.76
1095.286	2.73
1095.641	2.68
1095.995	2.71
1096.35	2.64
1096.705	2.68
1097.059	2.72
1097.413	2.69
1097.768	2.65
1098.122	2.66
1098.476	2.8
1098.83	2.81
1099.184	2.8
1099.538	2.76
1099.892	2.72
1100.246	0
1100.6	0
1100.953	0
1101.307	0
1101.66	0
1102.013	0
1102.367	0
1102.72	0
1103.073	0
1103.426	0
1103.779	0
1104.132	0
1104.485	0
1104.838	0
1105.19	0
1105.543	0
1105.895	0
1106.248	0
1106.6	0
1106.952	0
1107.304	0
1107.657	0
1108.009	0
1108.36	0
1108.712	0
1109.064	0
1109.416	0
1109.767	0
1110.119	0
1110.47	0
1110.822	0
1111.173	0
1111.524	0
1111.875	0
1112.227	0
1112.577	0
1112.928	0
1113.279	0
1113.63	0
1113.981	0
1114.331	0
1114.682	0
1115.032	0
